Title=200220_em_NaOH-EtOH_2,0uM_RhoB
Comment=
Signature=ISS_Experiment_Ver_1_0
Timestamp=Thu Feb 20 19:55:42 2020
Product=Vinci2
SoftwareVersion=BETA.2.4
BuildNumber=234
RealTimeStart=11160.3423146

AcquisitionType=Photon Counting
AcquisitionFormat=L
AcquisitionSide=Right
Detector Gains=(0.0, 0.0)

Measurable=Intensity
MaxIterations=10

RightEmissionWavelengthBandwidth=8.0
ExcitationWavelengthBandwidth=8.0
Visualization=Y:Intensity,X:EmissionWavelength,PlotType:2D


EmissionWavelength=type:numeric,unit:nm,from:400.0,to:800.0,step:1.0
ExcitationWavelength=type:numeric,unit:nm,fixed:543.0

Space=EmissionWavelength
Columns=EmissionWavelength,Intensity,IntensityStdError,RealTime
[Data]
        400.00	     340.72783	     4.0480271	     11163.354
        401.00	     329.88131	     2.7790890	     11163.923
        402.00	     331.71294	     3.8107263	     11164.227
        403.00	     323.50236	     4.3438168	     11164.640
        404.00	     318.91102	     3.2515875	     11165.153
        405.00	     318.42633	     4.1224957	     11165.457
        406.00	     313.89613	     4.1123247	     11165.870
        407.00	     310.89770	     4.2874952	     11166.175
        408.00	     308.00861	     2.6637071	     11166.691
        409.00	     312.11734	     4.3005924	     11166.995
        410.00	     304.19317	     3.1930562	     11167.300
        411.00	     303.90090	     3.0036401	     11167.713
        412.00	     310.31186	     3.4655686	     11168.231
        413.00	     303.49610	     2.9038338	     11168.536
        414.00	     299.99868	     3.3819955	     11168.841
        415.00	     298.79464	     3.2459257	     11169.254
        416.00	     302.30240	     4.6709719	     11169.773
        417.00	     298.44949	     5.1015430	     11170.077
        418.00	     297.91849	     3.0377321	     11170.382
        419.00	     295.22457	     2.5047506	     11170.795
        420.00	     288.82785	     4.4640119	     11171.314
        421.00	     290.25142	     3.2735040	     11171.618
        422.00	     299.69910	     3.6721248	     11171.922
        423.00	     296.51025	     4.4513847	     11172.336
        424.00	     294.91015	     3.9603331	     11172.855
        425.00	     296.29296	     2.8961061	     11173.159
        426.00	     297.90910	     3.7994343	     11173.464
        427.00	     301.04957	     5.7908396	     11173.877
        428.00	     311.04515	     5.3868960	     11174.396
        429.00	     303.54832	     5.4655105	     11174.700
        430.00	     309.43969	     4.1180956	     11175.005
        431.00	     316.13358	     5.3217231	     11175.418
        432.00	     316.09435	     3.4647344	     11175.940
        433.00	     323.30030	     3.2030751	     11176.245
        434.00	     317.83995	     3.9392969	     11176.760
        435.00	     321.61974	     4.9527808	     11177.064
        436.00	     327.27201	     5.0461934	     11177.478
        437.00	     333.12866	     3.5201489	     11177.990
        438.00	     333.82965	     3.9233323	     11178.295
        439.00	     334.17789	     3.9408926	     11178.708
        440.00	     334.00082	     4.1462473	     11179.221
        441.00	     342.90057	     4.1335089	     11179.525
        442.00	     353.07439	     4.5369756	     11179.829
        443.00	     358.29779	     4.0672606	     11180.243
        444.00	     360.25400	     3.9159896	     11180.762
        445.00	     365.25685	     3.9396115	     11181.066
        446.00	     369.88676	     3.9814190	     11181.479
        447.00	     384.70202	     6.8218936	     11181.992
        448.00	     394.01008	     6.9222993	     11182.297
        449.00	     400.72267	     3.4971044	     11182.710
        450.00	     401.71761	     5.1938497	     11183.222
        451.00	     403.94613	     3.6911042	     11183.527
        452.00	     424.62258	     3.4062742	     11183.831
        453.00	     421.91507	     4.7468643	     11184.244
        454.00	     437.82839	     5.3814675	     11184.763
        455.00	     433.60072	     5.8013846	     11185.068
        456.00	     450.12486	     5.9112118	     11185.372
        457.00	     452.87977	     3.5807382	     11185.785
        458.00	     460.31785	     5.0241020	     11186.304
        459.00	     470.11772	     5.2818007	     11186.609
        460.00	     478.11128	     3.9149551	     11186.913
        461.00	     481.80941	     5.0779604	     11187.326
        462.00	     493.83903	     6.0782911	     11187.845
        463.00	     493.37759	     6.9745985	     11188.150
        464.00	     487.83365	     4.2789662	     11188.454
        465.00	     506.02211	     5.0334172	     11188.867
        466.00	     524.14088	     4.7678850	     11189.386
        467.00	     517.51320	     6.2932650	     11189.691
        468.00	     524.00852	     5.5893530	     11189.995
        469.00	     533.26260	     3.7483357	     11190.408
        470.00	     536.57581	     5.2920952	     11190.927
        471.00	     539.92014	     4.0978709	     11191.232
        472.00	     551.66978	     4.9744517	     11191.536
        473.00	     555.62372	     6.0659705	     11191.949
        474.00	     553.00073	     6.6704193	     11192.468
        475.00	     554.61020	     4.6713589	     11192.773
        476.00	     557.69929	     4.9930465	     11193.291
        477.00	     563.95176	     5.5288761	     11193.596
        478.00	     568.68821	     5.6418375	     11194.112
        479.00	     589.33773	     7.2450594	     11194.416
        480.00	     584.04743	     7.8375771	     11194.829
        481.00	     579.77900	     2.8627977	     11195.342
        482.00	     581.46116	     4.8018575	     11195.647
        483.00	     612.45275	     2.7341587	     11196.060
        484.00	     614.78291	     5.6567616	     11196.572
        485.00	     625.47619	     7.5723290	     11196.877
        486.00	     632.68406	     6.7578279	     11197.290
        487.00	     635.55160	     3.7420705	     11197.803
        488.00	     661.47807	     4.2937290	     11198.107
        489.00	     666.65493	     5.8246951	     11198.520
        490.00	     675.30170	     7.5084345	     11199.033
        491.00	     683.75658	     5.6756347	     11199.337
        492.00	     733.80266	     6.0656918	     11199.751
        493.00	     736.50494	     3.5145036	     11200.263
        494.00	     756.55314	     10.479932	     11200.568
        495.00	     788.77244	     4.6976441	     11200.981
        496.00	     815.85370	     6.4914251	     11201.494
        497.00	     850.22145	     11.587664	     11201.798
        498.00	     910.83238	     8.6214818	     11202.103
        499.00	     991.89318	     6.4543949	     11202.516
        500.00	     1049.3217	     15.033465	     11203.035
        501.00	     1145.3644	     8.2238042	     11203.339
        502.00	     1243.0549	     15.080933	     11203.644
        503.00	     1395.4342	     8.8672704	     11204.057
        504.00	     1497.7820	     19.275505	     11204.579
        505.00	     1601.0291	     21.325074	     11204.883
        506.00	     1735.7703	     24.663801	     11205.296
        507.00	     2020.7519	     7.0640808	     11205.601
        508.00	     2124.3695	     28.063054	     11206.117
        509.00	     2347.7586	     36.663803	     11206.421
        510.00	     2602.8961	     39.656352	     11206.725
        511.00	     2943.9339	     13.706213	     11207.139
        512.00	     3129.7929	     48.654490	     11207.658
        513.00	     3626.9573	     17.582972	     11207.962
        514.00	     3889.4464	     57.490883	     11208.481
        515.00	     4374.1092	     86.130840	     11208.786
        516.00	     5159.3487	     21.010234	     11209.199
        517.00	     5559.1798	     115.61817	     11209.711
        518.00	     6407.6393	     140.48621	     11210.016
        519.00	     7695.1555	     15.681605	     11210.429
        520.00	     8966.5325	     25.488269	     11210.942
        521.00	     9832.7108	     233.38193	     11211.454
        522.00	     12182.358	     27.238004	     11211.759
        523.00	     13610.828	     352.65658	     11212.277
        524.00	     16114.726	     403.07252	     11212.582
        525.00	     19379.679	     487.24642	     11212.887
        526.00	     25089.743	     16.022585	     11213.300
        527.00	     30806.188	     46.594005	     11213.819
        528.00	     35376.297	     1138.2244	     11214.331
        529.00	     43515.058	     1291.3772	     11214.636
        530.00	     56218.440	     79.783041	     11215.049
        531.00	     62994.161	     1698.6184	     11215.562
        532.00	     74717.462	     1741.3874	     11215.866
        533.00	     90964.165	     67.189722	     11216.279
        534.00	     98257.445	     1804.8923	     11216.792
        535.00	     110208.49	     1669.0635	     11217.096
        536.00	     125118.17	     111.46521	     11217.510
        537.00	     131666.51	     1493.4226	     11218.022
        538.00	     141514.67	     1275.4773	     11218.327
        539.00	     152340.50	     58.114480	     11218.740
        540.00	     156911.49	     938.29947	     11219.253
        541.00	     163292.70	     789.66773	     11219.557
        542.00	     169841.85	     54.389703	     11219.970
        543.00	     172637.65	     486.98649	     11220.483
        544.00	     176516.40	     384.36023	     11220.787
        545.00	     180383.90	     36.134583	     11221.201
        546.00	     182759.54	     274.28162	     11221.713
        547.00	     185334.76	     237.99247	     11222.018
        548.00	     188559.04	     59.898668	     11222.322
        549.00	     190508.76	     163.36477	     11222.844
        550.00	     192938.64	     168.68660	     11223.149
        551.00	     195224.57	     43.209919	     11223.562
        552.00	     196988.52	     119.16559	     11224.074
        553.00	     199090.89	     111.65697	     11224.379
        554.00	     201020.94	     54.816207	     11224.792
        555.00	     202989.08	     68.631233	     11225.305
        556.00	     204748.86	     83.652695	     11225.817
        557.00	     206652.85	     49.381186	     11226.122
        558.00	     208401.48	     78.836412	     11226.426
        559.00	     210529.81	     46.811122	     11226.839
        560.00	     211999.38	     55.131508	     11227.358
        561.00	     213893.76	     46.329100	     11227.663
        562.00	     215532.93	     33.407206	     11228.182
        563.00	     217467.88	     67.941386	     11228.486
        564.00	     219189.30	     57.697410	     11229.002
        565.00	     220940.34	     37.460324	     11229.306
        566.00	     222993.90	     52.238385	     11229.822
        567.00	     224505.67	     55.552047	     11230.126
        568.00	     226380.93	     53.940922	     11230.540
        569.00	     228531.34	     52.639867	     11231.052
        570.00	     229928.77	     52.952190	     11231.357
        571.00	     231659.29	     53.929887	     11231.770
        572.00	     233430.52	     69.077852	     11232.283
        573.00	     235235.40	     44.305164	     11232.587
        574.00	     236866.85	     82.718316	     11232.891
        575.00	     238914.29	     59.467824	     11233.305
        576.00	     240105.40	     69.381236	     11233.824
        577.00	     241866.22	     53.922940	     11234.128
        578.00	     243460.85	     80.802255	     11234.647
        579.00	     245136.34	     52.800787	     11234.952
        580.00	     247140.51	     92.106255	     11235.467
        581.00	     248425.09	     78.749661	     11235.772
        582.00	     249675.54	     103.21796	     11236.287
        583.00	     251165.82	     128.01948	     11236.592
        584.00	     252176.75	     60.047423	     11237.005
        585.00	     253601.86	     108.68308	     11237.518
        586.00	     254959.31	     151.16378	     11237.822
        587.00	     255816.29	     173.71904	     11238.127
        588.00	     255933.18	     77.263210	     11238.540
        589.00	     257447.45	     144.75407	     11239.059
        590.00	     257678.81	     74.196580	     11239.364
        591.00	     258574.38	     206.88994	     11239.882
        592.00	     259035.88	     54.888600	     11240.187
        593.00	     259061.49	     45.959571	     11240.702
        594.00	     260132.24	     248.33925	     11241.215
        595.00	     260516.45	     301.05872	     11241.519
        596.00	     260400.04	     91.259639	     11241.933
        597.00	     261028.19	     61.622870	     11242.445
        598.00	     261464.00	     334.54964	     11242.958
        599.00	     261547.04	     320.32017	     11243.262
        600.00	     260603.38	     55.005056	     11243.675
        601.00	     261123.43	     385.91992	     11244.188
        602.00	     261099.13	     361.77800	     11244.493
        603.00	     259986.12	     76.423970	     11244.906
        604.00	     260533.98	     460.69105	     11245.418
        605.00	     259508.13	     131.62129	     11245.723
        606.00	     260029.17	     461.73835	     11246.239
        607.00	     259313.96	     460.92511	     11246.543
        608.00	     257424.80	     126.28871	     11246.956
        609.00	     257088.75	     113.57466	     11247.469
        610.00	     257783.03	     498.56870	     11247.981
        611.00	     255598.93	     111.88541	     11248.286
        612.00	     254953.37	     128.16531	     11248.802
        613.00	     254309.20	     98.197050	     11249.315
        614.00	     254626.72	     440.99427	     11249.827
        615.00	     252123.83	     107.99001	     11250.132
        616.00	     251249.17	     157.49107	     11250.648
        617.00	     251080.34	     552.58033	     11251.163
        618.00	     250132.36	     590.68971	     11251.468
        619.00	     246963.71	     141.26875	     11251.881
        620.00	     247000.33	     626.05858	     11252.393
        621.00	     243387.05	     102.41256	     11252.698
        622.00	     243103.30	     808.58755	     11253.214
        623.00	     239191.83	     223.86999	     11253.518
        624.00	     238596.42	     765.70527	     11254.034
        625.00	     235977.70	     758.90440	     11254.338
        626.00	     231095.04	     130.24632	     11254.751
        627.00	     229946.59	     954.61226	     11255.264
        628.00	     223920.18	     182.55470	     11255.569
        629.00	     220877.38	     217.20273	     11256.084
        630.00	     219125.12	     930.19813	     11256.600
        631.00	     215364.70	     996.95759	     11256.904
        632.00	     208273.78	     98.109896	     11257.318
        633.00	     206461.46	     1088.9483	     11257.830
        634.00	     199334.05	     119.90365	     11258.135
        635.00	     196823.36	     1056.0451	     11258.650
        636.00	     192280.04	     1130.6453	     11258.955
        637.00	     184712.64	     215.98365	     11259.368
        638.00	     179533.17	     150.96653	     11259.884
        639.00	     177094.33	     1035.3989	     11260.397
        640.00	     169620.89	     194.62411	     11260.701
        641.00	     164289.36	     168.18887	     11261.217
        642.00	     161767.78	     1152.7579	     11261.729
        643.00	     156471.89	     1042.2909	     11262.034
        644.00	     148600.79	     121.64836	     11262.447
        645.00	     146324.26	     1130.6495	     11262.960
        646.00	     138956.70	     147.88818	     11263.265
        647.00	     136760.05	     1042.4362	     11263.780
        648.00	     131617.37	     986.19366	     11264.084
        649.00	     124699.54	     108.83446	     11264.498
        650.00	     122284.21	     1015.7909	     11265.010
        651.00	     117981.80	     827.45486	     11265.315
        652.00	     111803.78	     180.54593	     11265.728
        653.00	     109984.88	     925.47233	     11266.241
        654.00	     103707.92	     127.58216	     11266.545
        655.00	     100105.68	     176.92373	     11267.061
        656.00	     96327.313	     121.85149	     11267.573
        657.00	     94894.682	     759.51117	     11268.086
        658.00	     89717.629	     99.621785	     11268.391
        659.00	     88236.030	     704.38247	     11268.907
        660.00	     85516.598	     627.50809	     11269.211
        661.00	     82456.022	     653.33955	     11269.515
        662.00	     78181.004	     125.06835	     11269.928
        663.00	     77061.400	     626.65449	     11270.447
        664.00	     74493.468	     554.29126	     11270.752
        665.00	     71924.269	     492.41012	     11271.056
        666.00	     68632.794	     122.18225	     11271.469
        667.00	     67753.412	     479.64842	     11271.988
        668.00	     64462.483	     123.17567	     11272.293
        669.00	     63941.955	     473.14539	     11272.812
        670.00	     60622.007	     130.79077	     11273.116
        671.00	     59994.386	     417.57442	     11273.635
        672.00	     58095.567	     384.38306	     11273.940
        673.00	     55772.739	     89.696246	     11274.353
        674.00	     55061.075	     381.40575	     11274.865
        675.00	     53372.274	     381.22329	     11275.170
        676.00	     51309.238	     136.23792	     11275.583
        677.00	     50668.089	     281.45606	     11276.095
        678.00	     48414.584	     170.94705	     11276.400
        679.00	     48020.565	     362.46123	     11276.916
        680.00	     46540.980	     364.64212	     11277.220
        681.00	     44813.327	     125.31430	     11277.633
        682.00	     43499.737	     158.08200	     11278.146
        683.00	     43019.776	     330.28750	     11278.659
        684.00	     41669.541	     268.27058	     11278.963
        685.00	     40535.810	     267.59813	     11279.268
        686.00	     39743.233	     227.56145	     11279.681
        687.00	     37721.928	     116.94089	     11279.985
        688.00	     37335.892	     297.91154	     11280.508
        689.00	     36103.660	     234.92805	     11280.812
        690.00	     35358.413	     301.61503	     11281.116
        691.00	     33726.336	     82.255886	     11281.529
        692.00	     33412.259	     268.37793	     11282.048
        693.00	     32462.868	     185.94576	     11282.353
        694.00	     31560.386	     221.17980	     11282.657
        695.00	     30053.753	     124.88134	     11283.070
        696.00	     29627.399	     252.11153	     11283.589
        697.00	     28588.362	     231.66394	     11283.894
        698.00	     27719.047	     256.26327	     11284.198
        699.00	     26361.459	     131.23101	     11284.611
        700.00	     26318.306	     267.92782	     11285.130
        701.00	     25340.825	     195.18020	     11285.435
        702.00	     24476.623	     142.52494	     11285.739
        703.00	     23144.335	     92.134636	     11286.152
        704.00	     23106.540	     223.50928	     11286.671
        705.00	     22018.904	     195.96219	     11286.976
        706.00	     21084.746	     95.009315	     11287.389
        707.00	     20392.591	     116.09488	     11287.902
        708.00	     20243.928	     219.27333	     11288.414
        709.00	     19330.969	     186.15501	     11288.719
        710.00	     18778.621	     187.91732	     11289.023
        711.00	     17659.582	     80.784654	     11289.436
        712.00	     17475.624	     213.01857	     11289.955
        713.00	     16969.915	     159.26311	     11290.260
        714.00	     16534.910	     134.89349	     11290.564
        715.00	     15617.343	     110.52717	     11290.977
