Title=200220_em_NaOH-MeCN_2,0uM_ST512
Comment=
Signature=ISS_Experiment_Ver_1_0
Timestamp=Thu Feb 20 21:43:23 2020
Product=Vinci2
SoftwareVersion=BETA.2.4
BuildNumber=234
RealTimeStart=13167.730286

AcquisitionType=Photon Counting
AcquisitionFormat=L
AcquisitionSide=Right
Detector Gains=(0.0, 0.0)

Measurable=Intensity
MaxIterations=10

RightEmissionWavelengthBandwidth=8.0
ExcitationWavelengthBandwidth=8.0
Visualization=Y:Intensity,X:EmissionWavelength,PlotType:2D


EmissionWavelength=type:numeric,unit:nm,from:400.0,to:800.0,step:1.0
ExcitationWavelength=type:numeric,unit:nm,fixed:508.0

Space=EmissionWavelength
Columns=EmissionWavelength,Intensity,IntensityStdError,RealTime
[Data]
        400.00	     26.649619	     2.3117252	     13170.896
        401.00	     30.356894	     2.1601559	     13171.465
        402.00	     27.656122	     1.7177834	     13171.769
        403.00	     28.247892	     2.5047199	     13172.182
        404.00	     29.118459	     2.1861829	     13172.487
        405.00	     28.286834	     1.4219371	     13173.006
        406.00	     25.025318	     1.5100905	     13173.310
        407.00	     26.924036	     1.7272416	     13173.615
        408.00	     26.096276	     1.7679698	     13174.028
        409.00	     26.759388	     1.3642071	     13174.547
        410.00	     28.459339	     1.0410958	     13174.851
        411.00	     27.104063	     1.6006822	     13175.156
        412.00	     28.026705	     1.8218826	     13175.569
        413.00	     26.334751	     1.3572886	     13176.088
        414.00	     26.459793	     1.6812415	     13176.392
        415.00	     24.230893	     1.2768801	     13176.805
        416.00	     24.029457	     1.7949518	     13177.321
        417.00	     24.390645	    0.70090597	     13177.626
        418.00	     22.606220	     1.5772243	     13178.039
        419.00	     25.034130	     1.2717531	     13178.551
        420.00	     22.108376	     1.8593095	     13178.856
        421.00	     24.478482	     1.6398811	     13179.372
        422.00	     24.643204	     1.9707914	     13179.676
        423.00	     20.972115	     1.2066206	     13180.089
        424.00	     22.708427	     2.2721706	     13180.605
        425.00	     21.649509	     1.4749982	     13180.909
        426.00	     24.231175	     1.6086679	     13181.323
        427.00	     21.186262	     1.2553721	     13181.835
        428.00	     23.089569	     2.2778927	     13182.140
        429.00	     25.591458	     1.4644173	     13182.444
        430.00	     25.233582	     1.6508697	     13182.857
        431.00	     22.739020	     1.4123615	     13183.376
        432.00	     25.292271	     1.5044308	     13183.681
        433.00	     23.471839	     1.8687153	     13183.985
        434.00	     24.134932	     1.3226143	     13184.399
        435.00	     24.818840	     1.5799576	     13184.918
        436.00	     23.076260	     2.1052595	     13185.222
        437.00	     25.676919	     1.6957392	     13185.526
        438.00	     23.998148	     1.4896229	     13185.940
        439.00	     23.712731	     1.2514831	     13186.458
        440.00	     22.234357	     1.3270399	     13186.763
        441.00	     21.836454	     2.0211483	     13187.067
        442.00	     22.910061	     1.4388295	     13187.480
        443.00	     28.560503	     1.7438201	     13187.999
        444.00	     27.052990	     1.6639685	     13188.304
        445.00	     22.420238	     2.5690741	     13188.608
        446.00	     20.663926	     1.2329123	     13189.021
        447.00	     26.620731	     1.3525193	     13189.537
        448.00	     26.786655	     2.5253522	     13189.842
        449.00	     23.389171	     1.7680798	     13190.162
        450.00	     26.544322	     2.0354385	     13190.559
        451.00	     29.024089	     2.3147425	     13191.081
        452.00	     28.308172	     1.4019009	     13191.389
        453.00	     26.844475	     1.7300698	     13191.905
        454.00	     30.100702	     2.2006232	     13192.209
        455.00	     34.387234	     1.5962821	     13192.728
        456.00	     33.156111	     1.4814360	     13193.032
        457.00	     36.324731	     2.0035990	     13193.446
        458.00	     37.979847	     1.6905013	     13193.958
        459.00	     41.332231	     1.8136335	     13194.263
        460.00	     47.691634	     2.0454329	     13194.567
        461.00	     52.092555	     2.3835947	     13194.980
        462.00	     56.915218	     2.5024201	     13195.285
        463.00	     56.571085	     2.0594328	     13195.807
        464.00	     70.861400	     3.2331031	     13196.111
        465.00	     76.846470	     2.2822444	     13196.627
        466.00	     81.160840	     2.6839231	     13197.140
        467.00	     88.944997	     3.4461055	     13197.444
        468.00	     87.871345	     2.7662018	     13197.749
        469.00	     96.427474	     1.7797493	     13198.162
        470.00	     105.74893	     3.9402081	     13198.681
        471.00	     106.77136	     2.6355070	     13199.193
        472.00	     112.09069	     2.9491326	     13199.498
        473.00	     126.58484	     3.6683120	     13199.911
        474.00	     127.00550	     3.2727543	     13200.424
        475.00	     133.99959	     3.0021937	     13200.728
        476.00	     141.62551	     2.0366881	     13201.247
        477.00	     143.23647	     2.6038780	     13201.551
        478.00	     150.02258	     4.0258232	     13201.964
        479.00	     145.85705	     3.0242133	     13202.477
        480.00	     142.67508	     3.3818541	     13202.782
        481.00	     154.53827	     2.9190032	     13203.301
        482.00	     160.48987	     3.6698870	     13203.605
        483.00	     161.17019	     3.3989715	     13204.018
        484.00	     161.49612	     2.6279253	     13204.534
        485.00	     172.22329	     3.7345281	     13204.839
        486.00	     178.05931	     6.0908876	     13205.354
        487.00	     213.11393	     4.7781990	     13205.659
        488.00	     257.57438	     11.910287	     13206.174
        489.00	     352.80085	     18.497545	     13206.479
        490.00	     642.37623	     7.1413710	     13206.892
        491.00	     864.00676	     59.109232	     13207.405
        492.00	     1391.6553	     90.298721	     13207.709
        493.00	     2390.7592	     9.7350999	     13208.122
        494.00	     3018.3806	     153.94790	     13208.635
        495.00	     4237.9720	     188.02555	     13208.940
        496.00	     6155.8135	     24.411471	     13209.353
        497.00	     7242.9385	     264.32741	     13209.865
        498.00	     9847.0361	     25.219357	     13210.170
        499.00	     11353.199	     285.14445	     13210.686
        500.00	     13782.723	     320.76636	     13210.990
        501.00	     17050.825	     33.605785	     13211.403
        502.00	     19013.305	     349.69886	     13211.919
        503.00	     21822.355	     343.04941	     13212.223
        504.00	     25225.047	     44.688564	     13212.637
        505.00	     27009.645	     334.56593	     13213.149
        506.00	     30406.088	     53.415793	     13213.454
        507.00	     31888.229	     296.41535	     13213.970
        508.00	     33462.096	     212.07883	     13214.274
        509.00	     35093.605	     44.560390	     13214.687
        510.00	     35387.179	     39.863520	     13215.200
        511.00	     35685.506	     87.776633	     13215.504
        512.00	     35203.426	     48.072306	     13215.918
        513.00	     34433.613	     240.35881	     13216.430
        514.00	     32195.563	     83.905925	     13216.735
        515.00	     30654.897	     307.62527	     13217.253
        516.00	     28809.831	     294.46481	     13217.558
        517.00	     25701.326	     39.021678	     13217.971
        518.00	     24387.695	     329.86262	     13218.484
        519.00	     21318.794	     43.618979	     13218.788
        520.00	     19907.222	     327.37642	     13219.304
        521.00	     17704.273	     319.24071	     13219.608
        522.00	     14921.019	     25.566014	     13220.022
        523.00	     13596.899	     286.97326	     13220.534
        524.00	     11230.173	     48.413465	     13220.839
        525.00	     10164.578	     224.33648	     13221.354
        526.00	     8754.4488	     213.96205	     13221.659
        527.00	     7306.7998	     23.428808	     13222.072
        528.00	     6829.8946	     108.32428	     13222.585
        529.00	     6220.8912	     66.049177	     13222.889
        530.00	     5824.4380	     23.809196	     13223.303
        531.00	     5796.7739	     21.280105	     13223.815
        532.00	     5764.3138	     18.745192	     13224.120
        533.00	     5903.4514	     18.020505	     13224.635
        534.00	     5876.0555	     23.704026	     13224.940
        535.00	     5927.1728	     21.094846	     13225.353
        536.00	     5978.5355	     9.7726083	     13225.866
        537.00	     5963.5597	     24.800308	     13226.170
        538.00	     5906.2602	     15.985262	     13226.475
        539.00	     5902.5300	     28.758379	     13226.997
        540.00	     5757.0629	     30.064090	     13227.301
        541.00	     5737.7189	     28.993447	     13227.817
        542.00	     5599.4232	     16.317117	     13228.121
        543.00	     5562.3119	     36.460648	     13228.637
        544.00	     5440.0108	     33.417364	     13228.941
        545.00	     5229.8624	     26.322633	     13229.355
        546.00	     5212.2008	     29.101101	     13229.867
        547.00	     5085.0476	     32.801731	     13230.172
        548.00	     4890.5953	     17.353070	     13230.585
        549.00	     4812.2529	     42.947154	     13231.098
        550.00	     4674.0280	     30.545260	     13231.402
        551.00	     4490.8283	     20.471710	     13231.815
        552.00	     4349.3816	     23.539425	     13232.331
        553.00	     4308.8716	     33.825111	     13232.847
        554.00	     4231.8366	     32.359035	     13233.151
        555.00	     4023.3847	     25.398297	     13233.564
        556.00	     3935.3387	     26.909670	     13234.077
        557.00	     3814.6038	     31.284088	     13234.382
        558.00	     3675.5951	     14.638904	     13234.795
        559.00	     3598.1315	     22.156135	     13235.308
        560.00	     3546.9357	     25.639546	     13235.820
        561.00	     3398.5510	     12.672912	     13236.125
        562.00	     3328.5596	     31.894496	     13236.640
        563.00	     3240.2177	     17.459008	     13236.945
        564.00	     3166.0630	     16.813793	     13237.464
        565.00	     3109.8240	     25.802454	     13237.976
        566.00	     3050.2319	     17.793960	     13238.281
        567.00	     2940.9901	     14.541647	     13238.694
        568.00	     2908.9383	     17.962266	     13239.206
        569.00	     2870.8963	     21.416858	     13239.511
        570.00	     2781.2606	     12.025361	     13239.924
        571.00	     2741.8819	     25.760498	     13240.437
        572.00	     2660.2355	     18.228270	     13240.742
        573.00	     2640.7313	     27.746730	     13241.257
        574.00	     2573.9110	     14.752662	     13241.562
        575.00	     2525.0450	     11.884634	     13241.975
        576.00	     2498.0838	     23.507300	     13242.487
        577.00	     2423.6948	     15.286716	     13242.792
        578.00	     2390.3268	     9.9024738	     13243.308
        579.00	     2331.1609	     6.0798136	     13243.613
        580.00	     2312.9746	     19.320189	     13244.128
        581.00	     2249.9998	     18.482718	     13244.432
        582.00	     2192.8065	     20.036072	     13244.846
        583.00	     2171.9328	     22.656175	     13245.358
        584.00	     2120.1782	     10.119765	     13245.662
        585.00	     2051.0607	     12.883633	     13246.076
        586.00	     2034.9595	     14.447781	     13246.589
        587.00	     2028.0978	     18.180138	     13247.101
        588.00	     1937.7355	     22.604621	     13247.406
        589.00	     1926.1156	     17.232412	     13247.921
        590.00	     1894.0486	     26.166358	     13248.226
        591.00	     1815.7949	     20.076246	     13248.530
        592.00	     1775.5595	     14.215805	     13248.943
        593.00	     1789.2363	     20.970415	     13249.462
        594.00	     1686.9036	     14.098387	     13249.767
        595.00	     1683.0808	     7.0040100	     13250.286
        596.00	     1650.3354	     10.454475	     13250.798
        597.00	     1622.3062	     11.043143	     13251.311
        598.00	     1571.0370	     11.362475	     13251.617
        599.00	     1566.5723	     13.140736	     13252.131
        600.00	     1511.9961	     16.205712	     13252.436
        601.00	     1473.4467	     15.306338	     13252.740
        602.00	     1443.2341	     9.5021284	     13253.153
        603.00	     1410.7132	     13.098611	     13253.672
        604.00	     1398.2231	     13.631955	     13253.977
        605.00	     1342.7927	     15.272638	     13254.390
        606.00	     1336.7951	     13.211870	     13254.902
        607.00	     1323.2696	     11.039180	     13255.207
        608.00	     1286.6394	     10.077243	     13255.511
        609.00	     1244.1982	     13.657364	     13255.925
        610.00	     1227.5678	     15.599708	     13256.444
        611.00	     1209.4272	     9.7983809	     13256.956
        612.00	     1177.6899	     10.018504	     13257.261
        613.00	     1146.8608	     17.179285	     13257.776
        614.00	     1117.5587	     8.6008867	     13258.081
        615.00	     1069.2654	     10.107249	     13258.494
        616.00	     1082.8460	     19.337000	     13259.007
        617.00	     1065.0074	     8.9300004	     13259.311
        618.00	     1015.8459	     18.257603	     13259.724
        619.00	     1005.9981	     10.896361	     13260.240
        620.00	     980.87678	     12.420763	     13260.544
        621.00	     975.37113	     10.421964	     13260.958
        622.00	     953.09334	     9.9420104	     13261.470
        623.00	     934.93815	     10.096633	     13261.775
        624.00	     913.18414	     9.0003898	     13262.079
        625.00	     903.95580	     11.384770	     13262.492
        626.00	     890.14513	     14.866443	     13263.011
        627.00	     892.65375	     16.283308	     13263.316
        628.00	     874.47261	     11.630788	     13263.620
        629.00	     858.60147	     9.8265050	     13264.033
        630.00	     842.73484	     8.4724928	     13264.552
        631.00	     828.02039	     14.578134	     13264.857
        632.00	     808.44504	     17.931981	     13265.161
        633.00	     798.19648	     16.824990	     13265.574
        634.00	     790.83311	     11.215275	     13266.093
        635.00	     752.38125	     8.2371100	     13266.398
        636.00	     771.24482	     13.108134	     13266.702
        637.00	     749.03930	     9.9147293	     13267.115
        638.00	     726.69176	     13.741378	     13267.634
        639.00	     736.65828	     14.721635	     13267.939
        640.00	     701.61239	     12.145423	     13268.243
        641.00	     694.61426	     9.4268190	     13268.656
        642.00	     684.83763	     8.3503739	     13269.175
        643.00	     654.53337	     14.308429	     13269.480
        644.00	     672.77297	     9.5763215	     13269.999
        645.00	     664.97875	     9.4214191	     13270.303
        646.00	     638.10034	     10.621121	     13270.716
        647.00	     633.58232	     13.919828	     13271.232
        648.00	     613.37173	     6.3285684	     13271.536
        649.00	     602.40601	     12.708654	     13271.950
        650.00	     595.26695	     8.4366614	     13272.462
        651.00	     589.67861	     14.894040	     13272.767
        652.00	     559.31227	     13.269467	     13273.180
        653.00	     564.45180	     12.959146	     13273.693
        654.00	     592.07872	     14.775245	     13273.997
        655.00	     552.17569	     8.2687320	     13274.410
        656.00	     568.93996	     16.357948	     13274.923
        657.00	     548.58936	     14.110520	     13275.436
        658.00	     511.45442	     12.143444	     13275.948
        659.00	     519.08971	     12.458911	     13276.464
        660.00	     520.20027	     13.044485	     13276.768
        661.00	     497.18826	     13.607655	     13277.182
        662.00	     472.19655	     8.1579609	     13277.694
        663.00	     480.78167	     10.675565	     13277.999
        664.00	     489.35666	     16.929449	     13278.518
        665.00	     480.56273	     12.494466	     13278.822
        666.00	     477.48343	     12.778330	     13279.235
        667.00	     443.87625	     17.002873	     13279.751
        668.00	     466.84673	     14.089006	     13280.264
        669.00	     452.93608	     16.547051	     13280.776
        670.00	     453.44141	     14.816656	     13281.081
        671.00	     451.01289	     8.7054739	     13281.385
        672.00	     441.13395	     11.813728	     13281.798
        673.00	     442.37405	     16.100570	     13282.317
        674.00	     410.58569	     9.6391056	     13282.622
        675.00	     420.01547	     13.364219	     13283.141
        676.00	     411.40717	     15.140387	     13283.445
        677.00	     418.76708	     17.239189	     13283.858
        678.00	     410.17287	     15.040019	     13284.374
        679.00	     376.90049	     11.911759	     13284.679
        680.00	     409.47805	     16.590732	     13285.194
        681.00	     371.18969	     11.402369	     13285.499
        682.00	     363.79862	     12.413901	     13286.015
        683.00	     354.37371	     9.5710864	     13286.319
        684.00	     364.84111	     18.212447	     13286.732
        685.00	     353.60433	     13.735341	     13287.245
        686.00	     356.34817	     20.731512	     13287.549
        687.00	     336.88579	     13.409311	     13287.963
        688.00	     356.40174	     13.478409	     13288.475
        689.00	     345.17212	     17.612401	     13288.780
        690.00	     335.08323	     18.037359	     13289.295
        691.00	     325.66255	     12.948114	     13289.600
        692.00	     322.94931	     19.368696	     13289.904
        693.00	     321.42738	     10.348477	     13290.426
        694.00	     323.49890	     16.558858	     13290.731
        695.00	     310.63137	     14.799017	     13291.144
        696.00	     335.78096	     15.785105	     13291.656
        697.00	     303.82322	     19.847934	     13291.961
        698.00	     276.93361	     16.158772	     13292.477
        699.00	     320.46008	     20.500419	     13292.781
        700.00	     325.53015	     20.747172	     13293.086
        701.00	     286.40195	     24.325054	     13293.499
        702.00	     322.71686	     19.254085	     13294.018
        703.00	     302.23275	     18.985334	     13294.322
        704.00	     278.13902	     17.095548	     13294.627
        705.00	     283.60337	     25.414275	     13295.149
        706.00	     266.57511	     12.804748	     13295.453
        707.00	     284.33588	     18.356076	     13295.757
        708.00	     261.50164	     17.617505	     13296.171
        709.00	     254.34031	     18.644838	     13296.690
        710.00	     261.03614	     13.422292	     13297.202
        711.00	     276.37125	     18.980954	     13297.715
        712.00	     270.27732	     19.631757	     13298.020
        713.00	     258.23465	     16.239345	     13298.535
        714.00	     215.05674	     17.228126	     13298.840
        715.00	     246.61349	     22.503791	     13299.253
