Title=200220_em_EtOH_2,0uM_Flu
Comment=
Signature=ISS_Experiment_Ver_1_0
Timestamp=Thu Feb 20 15:46:53 2020
Product=Vinci2
SoftwareVersion=BETA.2.4
BuildNumber=234
RealTimeStart=6522.00800411

AcquisitionType=Photon Counting
AcquisitionFormat=L
AcquisitionSide=Right
Detector Gains=(0.0, 0.0)

Measurable=Intensity
MaxIterations=10

RightEmissionWavelengthBandwidth=8.0
ExcitationWavelengthBandwidth=8.0
Visualization=Y:Intensity,X:EmissionWavelength,PlotType:2D


EmissionWavelength=type:numeric,unit:nm,from:400.0,to:800.0,step:1.0
ExcitationWavelength=type:numeric,unit:nm,fixed:483.0

Space=EmissionWavelength
Columns=EmissionWavelength,Intensity,IntensityStdError,RealTime
[Data]
        400.00	     231.84707	     3.8324071	     6525.1120
        401.00	     237.20202	     3.8269744	     6525.6957
        402.00	     244.04349	     3.4937509	     6526.0005
        403.00	     240.01567	     3.4952027	     6526.4136
        404.00	     253.23475	     2.8382789	     6526.9262
        405.00	     247.12801	     3.3542639	     6527.2309
        406.00	     249.16216	     3.5970625	     6527.5350
        407.00	     259.63760	     3.8587067	     6527.9482
        408.00	     261.12147	     3.1025167	     6528.4672
        409.00	     261.06831	     3.5069487	     6528.7717
        410.00	     267.19150	     2.3812616	     6529.0763
        411.00	     269.72622	     3.2447418	     6529.4893
        412.00	     274.30344	     4.4152240	     6530.0084
        413.00	     271.67210	     3.4034726	     6530.3128
        414.00	     277.69167	     3.0212106	     6530.6173
        415.00	     291.79360	     3.7236771	     6531.0304
        416.00	     284.25755	     3.0044865	     6531.5491
        417.00	     293.25709	     4.3417962	     6531.8541
        418.00	     289.98008	     3.9356765	     6532.3728
        419.00	     292.07246	     4.4069619	     6532.6771
        420.00	     302.14781	     3.4329777	     6533.0902
        421.00	     305.79732	     4.3872282	     6533.6059
        422.00	     314.58626	     3.1864480	     6533.9105
        423.00	     315.89392	     3.3633052	     6534.4294
        424.00	     313.84151	     4.2510152	     6534.7339
        425.00	     320.97248	     4.6619638	     6535.1470
        426.00	     322.39509	     3.2397293	     6535.6594
        427.00	     326.09634	     3.6161310	     6535.9640
        428.00	     335.20649	     2.4928275	     6536.3773
        429.00	     335.81784	     3.4024643	     6536.8900
        430.00	     352.05068	     4.6437753	     6537.1943
        431.00	     351.48969	     4.1748733	     6537.6077
        432.00	     357.58690	     3.9547750	     6538.1201
        433.00	     367.75706	     3.2944489	     6538.4279
        434.00	     369.55426	     5.1997573	     6538.9468
        435.00	     384.25095	     6.0550810	     6539.2514
        436.00	     394.80470	     5.1949408	     6539.5555
        437.00	     393.23327	     4.4888167	     6539.9688
        438.00	     408.20945	     4.5849996	     6540.4879
        439.00	     431.76025	     4.4271361	     6540.7922
        440.00	     436.24002	     4.2167002	     6541.3111
        441.00	     452.61900	     4.6991123	     6541.6155
        442.00	     478.19857	     3.0693451	     6542.0287
        443.00	     489.46454	     6.4500223	     6542.5414
        444.00	     510.99543	     4.7728303	     6542.8462
        445.00	     528.13765	     6.4208309	     6543.3613
        446.00	     559.04499	     5.9719488	     6543.6659
        447.00	     583.65827	     5.1723918	     6544.0793
        448.00	     621.09357	     8.7730031	     6544.5950
        449.00	     652.97715	     6.7460584	     6544.8993
        450.00	     702.10493	     6.1612897	     6545.3125
        451.00	     734.42901	     7.7994243	     6545.8255
        452.00	     790.04371	     8.4890389	     6546.1298
        453.00	     850.68242	     11.352967	     6546.4344
        454.00	     954.18708	     5.1443924	     6546.8474
        455.00	     1007.5511	     10.798523	     6547.3664
        456.00	     1120.6035	     18.263180	     6547.6708
        457.00	     1234.8574	     16.968130	     6547.9750
        458.00	     1417.5102	     9.5419109	     6548.3884
        459.00	     1576.0263	     5.5862474	     6548.9074
        460.00	     1717.9875	     34.950047	     6549.4229
        461.00	     1987.6340	     44.636607	     6549.7277
        462.00	     2536.7618	     11.411312	     6550.1407
        463.00	     2941.0217	     98.430365	     6550.6534
        464.00	     3789.4158	     132.12060	     6550.9578
        465.00	     5238.9281	     10.040507	     6551.3714
        466.00	     6120.8892	     216.67891	     6551.8836
        467.00	     7756.9632	     256.16865	     6552.1880
        468.00	     9633.1529	     293.67346	     6552.4928
        469.00	     12367.067	     27.448860	     6552.9058
        470.00	     13724.342	     350.20953	     6553.4244
        471.00	     16333.451	     373.49497	     6553.7292
        472.00	     19105.767	     414.76313	     6554.0335
        473.00	     23278.314	     32.944927	     6554.4468
        474.00	     25582.246	     538.35938	     6554.9655
        475.00	     29660.611	     628.13758	     6555.2700
        476.00	     34242.389	     682.62655	     6555.5744
        477.00	     40430.233	     49.165306	     6555.9878
        478.00	     45514.997	     32.070037	     6556.5068
        479.00	     48976.538	     790.67309	     6557.0194
        480.00	     54638.458	     802.64390	     6557.3236
        481.00	     60381.326	     810.54307	     6557.6282
        482.00	     64465.839	     845.75789	     6558.0412
        483.00	     74391.589	     42.212795	     6558.3459
        484.00	     78289.594	     873.02643	     6558.8711
        485.00	     84463.292	     864.76501	     6559.1752
        486.00	     92793.008	     49.639063	     6559.5886
        487.00	     96365.862	     848.74929	     6560.1013
        488.00	     102341.63	     757.34884	     6560.4058
        489.00	     107740.03	     660.26241	     6560.7101
        490.00	     110973.81	     576.28937	     6561.1232
        491.00	     117696.07	     28.208486	     6561.4280
        492.00	     119802.63	     441.35871	     6561.9499
        493.00	     123168.66	     369.98308	     6562.2543
        494.00	     126557.73	     38.437475	     6562.6676
        495.00	     128137.15	     250.81616	     6563.1800
        496.00	     130120.32	     208.29591	     6563.4846
        497.00	     133316.26	     42.264718	     6563.8979
        498.00	     136258.33	     178.00293	     6564.4106
        499.00	     140918.04	     148.81918	     6564.7149
        500.00	     146579.86	     56.724730	     6565.1282
        501.00	     151230.56	     171.66373	     6565.6409
        502.00	     156371.10	     125.83339	     6565.9455
        503.00	     161729.98	     19.537991	     6566.3585
        504.00	     166257.21	     31.585881	     6566.8714
        505.00	     170294.38	     103.08048	     6567.3837
        506.00	     173909.18	     69.351423	     6567.6884
        507.00	     176806.88	     67.229363	     6568.1012
        508.00	     179256.23	     47.356261	     6568.4060
        509.00	     180274.92	     54.801899	     6568.9217
        510.00	     181608.23	     45.197957	     6569.2264
        511.00	     181784.11	     60.283797	     6569.7420
        512.00	     182137.49	     51.723918	     6570.0465
        513.00	     181557.26	     36.925638	     6570.5623
        514.00	     180817.76	     60.954795	     6571.0745
        515.00	     180137.96	     44.304813	     6571.3796
        516.00	     179564.67	     52.051507	     6571.8982
        517.00	     178858.27	     46.801894	     6572.2026
        518.00	     178265.49	     36.783701	     6572.6157
        519.00	     177752.91	     49.812966	     6573.1284
        520.00	     177036.77	     38.901495	     6573.4328
        521.00	     176736.45	     33.640359	     6573.8460
        522.00	     176488.15	     46.649004	     6574.3587
        523.00	     176544.24	     50.733758	     6574.6634
        524.00	     176449.22	     37.813762	     6575.1787
        525.00	     176142.22	     47.244508	     6575.4833
        526.00	     176237.47	     37.754677	     6575.8965
        527.00	     176274.33	     28.855705	     6576.4091
        528.00	     176838.93	     20.672629	     6576.7136
        529.00	     176897.66	     30.730015	     6577.1268
        530.00	     177482.93	     48.675341	     6577.6396
        531.00	     177553.29	     25.285055	     6577.9439
        532.00	     178041.97	     36.044653	     6578.3571
        533.00	     178753.66	     34.892935	     6578.8699
        534.00	     179199.31	     39.672769	     6579.1746
        535.00	     179895.95	     53.104682	     6579.4786
        536.00	     180398.85	     45.809234	     6579.8920
        537.00	     181266.91	     68.688760	     6580.4109
        538.00	     182023.73	     42.714902	     6580.7152
        539.00	     182602.83	     68.062137	     6581.1285
        540.00	     183569.55	     66.238104	     6581.6412
        541.00	     184454.88	     56.298508	     6581.9455
        542.00	     185021.30	     34.490374	     6582.3588
        543.00	     185767.19	     38.002161	     6582.8716
        544.00	     186728.85	     36.562313	     6583.3842
        545.00	     187551.03	     50.456789	     6583.8965
        546.00	     188469.24	     81.192280	     6584.2012
        547.00	     189262.93	     64.503733	     6584.5056
        548.00	     190189.91	     52.455707	     6584.9188
        549.00	     191372.73	     79.838182	     6585.4376
        550.00	     192004.89	     40.077541	     6585.7427
        551.00	     192887.98	     60.967551	     6586.2612
        552.00	     193814.97	     54.365882	     6586.5657
        553.00	     194613.57	     52.816081	     6586.9787
        554.00	     195600.55	     97.785634	     6587.4914
        555.00	     196594.71	     92.049574	     6587.7958
        556.00	     197305.87	     45.417744	     6588.2091
        557.00	     198572.49	     105.64271	     6588.7215
        558.00	     199258.83	     57.522105	     6589.0265
        559.00	     200533.35	     100.55565	     6589.5448
        560.00	     201302.56	     138.48239	     6589.8495
        561.00	     201885.59	     56.428879	     6590.2627
        562.00	     203171.75	     103.35393	     6590.7753
        563.00	     203613.90	     60.805313	     6591.0802
        564.00	     204759.87	     126.87707	     6591.5986
        565.00	     205415.26	     117.46200	     6591.9034
        566.00	     206174.63	     54.932165	     6592.3163
        567.00	     207172.88	     127.67633	     6592.8319
        568.00	     207543.37	     61.191411	     6593.1368
        569.00	     208963.10	     150.81544	     6593.6552
        570.00	     209154.67	     188.03131	     6593.9599
        571.00	     209273.31	     31.756900	     6594.3730
        572.00	     209765.22	     81.685844	     6594.8858
        573.00	     210767.10	     183.72545	     6595.3984
        574.00	     210720.39	     195.17942	     6595.7026
        575.00	     211389.16	     238.26259	     6596.0071
        576.00	     210528.63	     94.938716	     6596.4205
        577.00	     211217.67	     254.11350	     6596.9394
        578.00	     211154.69	     285.06848	     6597.2437
        579.00	     211216.68	     291.72045	     6597.5481
        580.00	     210563.32	     53.995753	     6597.9615
        581.00	     210144.33	     78.056303	     6598.4834
        582.00	     210029.40	     374.94520	     6598.9958
        583.00	     208940.80	     69.905338	     6599.3009
        584.00	     208991.62	     375.29877	     6599.8161
        585.00	     208220.42	     397.49775	     6600.1206
        586.00	     206521.11	     103.44238	     6600.5340
        587.00	     206399.04	     446.83609	     6601.0498
        588.00	     204129.93	     128.64868	     6601.3544
        589.00	     204459.25	     412.35745	     6601.8730
        590.00	     203074.10	     439.95624	     6602.1777
        591.00	     200574.50	     112.33182	     6602.5907
        592.00	     200758.55	     514.46849	     6603.1032
        593.00	     197656.92	     82.398625	     6603.4081
        594.00	     197292.27	     524.08111	     6603.9268
        595.00	     195640.06	     491.42993	     6604.2310
        596.00	     193036.36	     111.49748	     6604.6443
        597.00	     192791.69	     488.27134	     6605.1603
        598.00	     190699.61	     420.45156	     6605.4647
        599.00	     187579.99	     114.25475	     6605.8775
        600.00	     187212.79	     514.39265	     6606.3904
        601.00	     185300.28	     538.10006	     6606.6950
        602.00	     181976.79	     137.80396	     6607.1081
        603.00	     181413.17	     558.00256	     6607.6208
        604.00	     178992.83	     559.46347	     6607.9249
        605.00	     176953.97	     609.90735	     6608.2295
        606.00	     173463.91	     111.38576	     6608.6428
        607.00	     172683.78	     617.87162	     6609.1617
        608.00	     170051.36	     623.36743	     6609.4663
        609.00	     166591.93	     115.62278	     6609.8793
        610.00	     164441.35	     117.52352	     6610.3920
        611.00	     163263.60	     725.14369	     6610.9047
        612.00	     159727.45	     99.170598	     6611.2095
        613.00	     157721.72	     101.46685	     6611.7250
        614.00	     156289.14	     629.03751	     6612.2375
        615.00	     153844.11	     664.21770	     6612.5418
        616.00	     149316.45	     140.19084	     6612.9551
        617.00	     148345.73	     694.04126	     6613.4677
        618.00	     145632.84	     619.15573	     6613.7721
        619.00	     142054.52	     159.20123	     6614.1855
        620.00	     141160.72	     718.90657	     6614.6982
        621.00	     137171.09	     160.52590	     6615.0028
        622.00	     136102.90	     656.71667	     6615.5182
        623.00	     133286.58	     623.09820	     6615.8227
        624.00	     130458.79	     607.41130	     6616.1274
        625.00	     126683.11	     164.57974	     6616.5404
        626.00	     123913.90	     132.61272	     6617.0595
        627.00	     121413.70	     109.84259	     6617.5752
        628.00	     120252.54	     660.85250	     6618.0875
        629.00	     118017.08	     667.75191	     6618.3922
        630.00	     114147.62	     137.99210	     6618.8054
        631.00	     113105.60	     721.52436	     6619.3181
        632.00	     110725.84	     559.61888	     6619.6224
        633.00	     106944.49	     166.18466	     6620.0356
        634.00	     106288.22	     618.65230	     6620.5482
        635.00	     103667.76	     560.34119	     6620.8528
        636.00	     100591.26	     238.01832	     6621.2660
        637.00	     99493.682	     558.12342	     6621.7785
        638.00	     97256.481	     513.07269	     6622.0831
        639.00	     94051.030	     133.68673	     6622.4964
        640.00	     92124.494	     116.18346	     6623.0123
        641.00	     90037.737	     83.964873	     6623.5249
        642.00	     89311.515	     391.72300	     6624.0371
        643.00	     87140.620	     456.99346	     6624.3416
        644.00	     85295.560	     361.43588	     6624.6463
        645.00	     82799.953	     92.243943	     6625.0595
        646.00	     82278.756	     502.72788	     6625.5782
        647.00	     80537.832	     433.37891	     6625.8827
        648.00	     78588.622	     385.11752	     6626.1871
        649.00	     75883.732	     141.37554	     6626.6005
        650.00	     75272.211	     433.52158	     6627.1194
        651.00	     73674.618	     457.65051	     6627.4237
        652.00	     72230.671	     428.28489	     6627.7440
        653.00	     70491.720	     393.55828	     6628.0487
        654.00	     68819.706	     353.56718	     6628.3528
        655.00	     66668.205	     129.50876	     6628.7660
        656.00	     64989.730	     108.07458	     6629.2819
        657.00	     64658.451	     418.90397	     6629.7941
        658.00	     63209.581	     329.44992	     6630.0987
        659.00	     60844.136	     129.00567	     6630.5119
        660.00	     60574.357	     403.17127	     6631.0247
        661.00	     59024.470	     353.67377	     6631.3290
        662.00	     57761.449	     323.55792	     6631.6334
        663.00	     55864.020	     111.53355	     6632.0469
        664.00	     54522.040	     146.69658	     6632.5656
        665.00	     54131.152	     417.43670	     6633.0781
        666.00	     52118.784	     79.258230	     6633.3829
        667.00	     51643.844	     323.14007	     6633.9014
        668.00	     50263.234	     314.79344	     6634.2060
        669.00	     48583.235	     75.183526	     6634.6192
        670.00	     48173.455	     344.99001	     6635.1349
        671.00	     46343.407	     122.82701	     6635.4399
        672.00	     45804.778	     307.55346	     6635.9551
        673.00	     44875.318	     199.62209	     6636.2600
        674.00	     43261.958	     141.23232	     6636.6730
        675.00	     42165.844	     99.125541	     6637.1858
        676.00	     41788.964	     259.54477	     6637.6984
        677.00	     40595.683	     222.39865	     6638.0026
        678.00	     39365.524	     66.000887	     6638.4159
        679.00	     38844.285	     305.64938	     6638.9285
        680.00	     37539.403	     56.779795	     6639.2333
        681.00	     36869.579	     220.53567	     6639.7487
        682.00	     36088.236	     302.77681	     6640.0530
        683.00	     34554.140	     117.42132	     6640.4664
        684.00	     34080.241	     266.29391	     6640.9789
        685.00	     32910.940	     122.95643	     6641.2834
        686.00	     32800.575	     212.51302	     6641.7993
        687.00	     31954.190	     196.12845	     6642.1038
        688.00	     30578.507	     80.829636	     6642.5170
        689.00	     30300.658	     211.88165	     6643.0296
        690.00	     29604.945	     164.24796	     6643.3341
        691.00	     28503.767	     90.973283	     6643.7473
        692.00	     27809.003	     98.043977	     6644.2601
        693.00	     27102.212	     112.26109	     6644.7727
        694.00	     26359.772	     132.61885	     6645.2854
        695.00	     25702.904	     93.603862	     6645.7980
        696.00	     25707.762	     161.17259	     6646.3102
        697.00	     25042.301	     192.43668	     6646.6147
        698.00	     24064.037	     88.956712	     6647.0281
        699.00	     23463.324	     104.38766	     6647.5410
        700.00	     23271.912	     170.11754	     6648.0535
        701.00	     22625.265	     150.53090	     6648.3578
        702.00	     22170.227	     121.66470	     6648.6623
        703.00	     21233.549	     117.23095	     6649.0755
        704.00	     21200.289	     113.26157	     6649.5944
        705.00	     20613.104	     146.24824	     6649.8989
        706.00	     19950.154	     146.04023	     6650.2031
        707.00	     19504.745	     74.903753	     6650.6163
        708.00	     19191.390	     142.83110	     6651.1355
        709.00	     18588.659	     159.37004	     6651.4397
        710.00	     18417.488	     108.39142	     6651.7442
        711.00	     17782.540	     54.180676	     6652.1576
        712.00	     17551.278	     146.40525	     6652.6764
        713.00	     17156.630	     115.58975	     6652.9809
        714.00	     16948.619	     169.37633	     6653.2854
        715.00	     16334.215	     104.63110	     6653.6985
