Title=200220_em_EtOH_2,0uM_ST512
Comment=
Signature=ISS_Experiment_Ver_1_0
Timestamp=Thu Feb 20 16:38:14 2020
Product=Vinci2
SoftwareVersion=BETA.2.4
BuildNumber=234
RealTimeStart=7479.27974817

AcquisitionType=Photon Counting
AcquisitionFormat=L
AcquisitionSide=Right
Detector Gains=(0.0, 0.0)

Measurable=Intensity
MaxIterations=10

RightEmissionWavelengthBandwidth=8.0
ExcitationWavelengthBandwidth=8.0
Visualization=Y:Intensity,X:EmissionWavelength,PlotType:2D


EmissionWavelength=type:numeric,unit:nm,from:400.0,to:800.0,step:1.0
ExcitationWavelength=type:numeric,unit:nm,fixed:516.0

Space=EmissionWavelength
Columns=EmissionWavelength,Intensity,IntensityStdError,RealTime
[Data]
        400.00	     693.55864	     6.5814165	     7482.3189
        401.00	     698.48433	     5.3654741	     7482.8905
        402.00	     695.53083	     4.7393023	     7483.1951
        403.00	     714.53912	     5.3960901	     7483.4995
        404.00	     709.47719	     5.2237617	     7483.9128
        405.00	     719.59335	     5.1250370	     7484.4316
        406.00	     725.07506	     4.3232787	     7484.7360
        407.00	     737.00576	     6.2525492	     7485.1493
        408.00	     753.30041	     3.8105800	     7485.6651
        409.00	     761.20377	     4.6901596	     7485.9698
        410.00	     771.52905	     5.2469578	     7486.4850
        411.00	     787.06028	     8.6225853	     7486.7898
        412.00	     802.47985	     5.5135200	     7487.2029
        413.00	     807.73513	     4.9227463	     7487.7156
        414.00	     825.67715	     4.9430304	     7488.0200
        415.00	     851.94547	     5.2924452	     7488.4332
        416.00	     849.33662	     4.4437358	     7488.9456
        417.00	     881.79812	     6.9263541	     7489.2501
        418.00	     899.45837	     6.7194039	     7489.6635
        419.00	     920.16415	     5.9807007	     7490.1763
        420.00	     935.02868	     5.1404170	     7490.4809
        421.00	     963.75411	     3.9440125	     7490.8938
        422.00	     968.58606	     7.2565182	     7491.4066
        423.00	     1006.1320	     5.4559944	     7491.7113
        424.00	     1008.0607	     5.5783511	     7492.2269
        425.00	     1038.4132	     7.2351320	     7492.7391
        426.00	     1070.1330	     7.2709562	     7493.0436
        427.00	     1076.1737	     6.4589933	     7493.3485
        428.00	     1106.9480	     5.7827248	     7493.7615
        429.00	     1114.0223	     8.1868967	     7494.2804
        430.00	     1140.5532	     8.2968987	     7494.5847
        431.00	     1178.0272	     8.7607498	     7494.8895
        432.00	     1199.6708	     4.6676850	     7495.3025
        433.00	     1214.5670	     6.2833498	     7495.8215
        434.00	     1234.3022	     6.6386211	     7496.1258
        435.00	     1260.2535	     7.1585819	     7496.5388
        436.00	     1303.5937	     3.0216787	     7496.8435
        437.00	     1298.1109	     7.8935734	     7497.3593
        438.00	     1318.2115	     9.2393771	     7497.6638
        439.00	     1351.4565	     6.2067619	     7498.0768
        440.00	     1360.3980	     6.5389196	     7498.5896
        441.00	     1401.9442	     9.6573620	     7498.8940
        442.00	     1400.3041	     8.5896882	     7499.3071
        443.00	     1444.0151	     5.9730480	     7499.8200
        444.00	     1463.8481	     6.5125738	     7500.1242
        445.00	     1479.5872	     11.113249	     7500.5376
        446.00	     1508.7650	     7.5410809	     7501.0500
        447.00	     1544.8015	     7.7816624	     7501.3545
        448.00	     1559.8326	     7.8963014	     7501.7679
        449.00	     1567.5291	     8.9257849	     7502.2804
        450.00	     1601.6682	     10.126885	     7502.5852
        451.00	     1622.1439	     8.2513819	     7503.1007
        452.00	     1637.9579	     7.9309229	     7503.4052
        453.00	     1660.7132	     9.4562687	     7503.7098
        454.00	     1700.9736	     11.349625	     7504.1229
        455.00	     1719.8804	     12.657410	     7504.6416
        456.00	     1745.1958	     9.9642746	     7504.9460
        457.00	     1782.0347	     7.7037651	     7505.2505
        458.00	     1808.9846	     7.2926516	     7505.6639
        459.00	     1824.4698	     10.571065	     7506.1827
        460.00	     1845.1298	     4.5782215	     7506.4870
        461.00	     1888.3885	     7.0767356	     7506.7914
        462.00	     1921.0231	     10.212808	     7507.2049
        463.00	     1955.6970	     6.4994353	     7507.7238
        464.00	     1987.1588	     12.458278	     7508.0282
        465.00	     2052.6564	     12.532793	     7508.3327
        466.00	     2117.0185	     12.678304	     7508.7461
        467.00	     2165.5873	     12.934124	     7509.2645
        468.00	     2250.7665	     16.828247	     7509.5696
        469.00	     2292.2769	     14.332559	     7510.0881
        470.00	     2389.4894	     13.356488	     7510.3928
        471.00	     2463.1301	     21.601006	     7510.9083
        472.00	     2627.8692	     9.1674015	     7511.2158
        473.00	     2700.8182	     19.404385	     7511.7314
        474.00	     2866.4992	     21.614602	     7512.0362
        475.00	     3087.6662	     13.703287	     7512.4492
        476.00	     3197.6497	     29.964964	     7512.9616
        477.00	     3483.4027	     41.838847	     7513.2662
        478.00	     3811.6729	     10.459424	     7513.6795
        479.00	     4052.0093	     52.506362	     7514.1920
        480.00	     4554.5933	     9.9976078	     7514.4970
        481.00	     4839.9266	     63.180453	     7515.0122
        482.00	     5358.2522	     83.755414	     7515.3168
        483.00	     6132.6674	     19.000828	     7515.7301
        484.00	     6855.7012	     18.298661	     7516.2458
        485.00	     7393.6136	     139.65962	     7516.7552
        486.00	     8461.3443	     148.48445	     7517.0598
        487.00	     9551.6087	     184.10014	     7517.3644
        488.00	     11333.769	     22.414387	     7517.7775
        489.00	     12343.657	     243.80983	     7518.2962
        490.00	     14119.816	     273.37840	     7518.6008
        491.00	     16168.814	     328.09039	     7518.9054
        492.00	     17792.414	     361.97675	     7519.3184
        493.00	     22466.195	     31.569539	     7519.6230
        494.00	     24673.198	     530.74493	     7520.1481
        495.00	     28700.682	     617.89046	     7520.4524
        496.00	     35099.502	     42.902741	     7520.8655
        497.00	     38947.500	     884.00772	     7521.3783
        498.00	     48596.467	     52.894061	     7521.6859
        499.00	     54642.729	     1216.5272	     7522.2016
        500.00	     68265.047	     95.783199	     7522.5065
        501.00	     76804.256	     1671.1660	     7523.0250
        502.00	     94448.908	     63.104511	     7523.3296
        503.00	     104389.08	     1886.4221	     7523.8452
        504.00	     123614.63	     52.550386	     7524.1500
        505.00	     133342.85	     1774.4959	     7524.6655
        506.00	     146349.39	     1451.2114	     7524.9699
        507.00	     159644.36	     54.586288	     7525.3831
        508.00	     164787.19	     930.23342	     7525.8955
        509.00	     170439.69	     655.75081	     7526.2001
        510.00	     174958.10	     498.98553	     7526.5048
        511.00	     178821.57	     61.520876	     7526.9177
        512.00	     180000.02	     319.86226	     7527.4366
        513.00	     181586.51	     49.390907	     7527.7416
        514.00	     181767.17	     52.894157	     7528.2631
        515.00	     181529.06	     154.79129	     7528.7724
        516.00	     181441.05	     104.78423	     7529.0770
        517.00	     181000.30	     83.931451	     7529.4901
        518.00	     181057.38	     27.771834	     7529.7948
        519.00	     180702.66	     65.836685	     7530.3137
        520.00	     180426.93	     56.270418	     7530.6181
        521.00	     180421.54	     38.648998	     7531.0315
        522.00	     180382.48	     62.335243	     7531.5470
        523.00	     180743.01	     70.320718	     7531.8516
        524.00	     181033.77	     31.706658	     7532.2648
        525.00	     180932.56	     71.760358	     7532.7772
        526.00	     181284.53	     46.920717	     7533.0819
        527.00	     181753.71	     54.320730	     7533.4951
        528.00	     182466.85	     40.407320	     7534.0076
        529.00	     182835.08	     58.882870	     7534.3121
        530.00	     183545.58	     42.532196	     7534.6167
        531.00	     184019.17	     57.430996	     7535.0299
        532.00	     184721.96	     56.379822	     7535.5489
        533.00	     185721.21	     39.318670	     7535.8533
        534.00	     186251.89	     28.399023	     7536.3721
        535.00	     187086.42	     53.858939	     7536.6768
        536.00	     188043.70	     39.241696	     7537.1922
        537.00	     189012.41	     34.673551	     7537.4967
        538.00	     189957.23	     36.106110	     7537.8012
        539.00	     190815.33	     39.312410	     7538.2145
        540.00	     191877.93	     41.852182	     7538.7335
        541.00	     193082.06	     73.659863	     7539.2458
        542.00	     194133.35	     66.178305	     7539.5502
        543.00	     195062.92	     44.841308	     7539.9636
        544.00	     196388.89	     36.919121	     7540.4761
        545.00	     197230.31	     37.289897	     7540.7809
        546.00	     198523.30	     48.038656	     7541.1938
        547.00	     199621.32	     46.590331	     7541.7065
        548.00	     200897.02	     47.255115	     7542.0113
        549.00	     202120.60	     56.679503	     7542.4240
        550.00	     203370.59	     48.856699	     7542.9367
        551.00	     204313.45	     44.360702	     7543.2416
        552.00	     205540.68	     51.379435	     7543.7569
        553.00	     207034.88	     58.751810	     7544.0617
        554.00	     208077.02	     52.110229	     7544.4746
        555.00	     209550.47	     31.658074	     7544.9874
        556.00	     210623.43	     38.556565	     7545.2923
        557.00	     212279.88	     62.643778	     7545.8074
        558.00	     213601.21	     40.110669	     7546.1125
        559.00	     215257.44	     58.759982	     7546.6275
        560.00	     216380.49	     29.564476	     7546.9327
        561.00	     217943.03	     45.282055	     7547.4512
        562.00	     219425.26	     86.017587	     7547.7555
        563.00	     220696.38	     41.263757	     7548.1687
        564.00	     222476.63	     42.167496	     7548.6813
        565.00	     223945.78	     52.043685	     7548.9858
        566.00	     225826.34	     42.441523	     7549.3991
        567.00	     227229.15	     71.005804	     7549.9117
        568.00	     228853.50	     58.188040	     7550.2164
        569.00	     231011.21	     64.482789	     7550.5204
        570.00	     232063.13	     50.108586	     7550.9339
        571.00	     233955.21	     64.894809	     7551.4529
        572.00	     235750.75	     78.861439	     7551.7572
        573.00	     237608.81	     70.730110	     7552.0617
        574.00	     238866.21	     55.237236	     7552.4747
        575.00	     241089.54	     62.540557	     7552.9938
        576.00	     242283.75	     74.553222	     7553.2988
        577.00	     244335.63	     38.672782	     7553.8138
        578.00	     246136.93	     46.538400	     7554.1185
        579.00	     248017.50	     44.928623	     7554.5314
        580.00	     250233.60	     64.386641	     7555.0473
        581.00	     251948.78	     66.689518	     7555.3523
        582.00	     253407.92	     68.268926	     7555.8678
        583.00	     255303.62	     68.685410	     7556.1724
        584.00	     256942.32	     69.866273	     7556.5853
        585.00	     258918.60	     51.222446	     7557.0980
        586.00	     260595.79	     85.032550	     7557.4028
        587.00	     262551.66	     107.26055	     7557.9212
        588.00	     263892.09	     71.592253	     7558.2258
        589.00	     265939.92	     80.793668	     7558.6388
        590.00	     267480.00	     127.86831	     7559.1482
        591.00	     268962.65	     82.554870	     7559.4530
        592.00	     270910.57	     85.234941	     7559.8659
        593.00	     272241.23	     125.35539	     7560.3786
        594.00	     273558.49	     61.571802	     7560.6836
        595.00	     275284.95	     106.62191	     7561.2021
        596.00	     277011.41	     75.563696	     7561.5071
        597.00	     278997.81	     152.20565	     7562.0225
        598.00	     280182.91	     121.23201	     7562.3269
        599.00	     281626.08	     143.24117	     7562.6313
        600.00	     282722.47	     71.073025	     7563.0445
        601.00	     284075.02	     214.55447	     7563.5634
        602.00	     285670.27	     194.31844	     7563.8680
        603.00	     286964.83	     229.97884	     7564.1721
        604.00	     287495.18	     23.918769	     7564.5853
        605.00	     289267.47	     219.06494	     7565.1040
        606.00	     290382.18	     225.90661	     7565.4089
        607.00	     290705.44	     75.477497	     7565.8219
        608.00	     292003.68	     289.73246	     7566.3345
        609.00	     293107.31	     299.07132	     7566.6391
        610.00	     293110.48	     64.646641	     7567.0520
        611.00	     293356.12	     97.588689	     7567.5653
        612.00	     293672.50	     76.800422	     7568.0778
        613.00	     295069.17	     455.57747	     7568.5901
        614.00	     294464.51	     471.88369	     7568.8948
        615.00	     292990.30	     91.071543	     7569.3078
        616.00	     292455.58	     101.70825	     7569.8204
        617.00	     292789.80	     571.78647	     7570.3329
        618.00	     290456.24	     127.55169	     7570.6379
        619.00	     290410.50	     684.42731	     7571.1531
        620.00	     289167.26	     724.33482	     7571.4576
        621.00	     287399.43	     738.48862	     7571.7622
        622.00	     282997.86	     135.89493	     7572.1754
        623.00	     283002.41	     962.13601	     7572.6944
        624.00	     280521.61	     962.42646	     7572.9986
        625.00	     277470.65	     988.46842	     7573.3031
        626.00	     272796.25	     140.84868	     7573.7165
        627.00	     272445.97	     984.74641	     7574.2353
        628.00	     266218.35	     138.18544	     7574.5403
        629.00	     266121.62	     1004.7166	     7575.0584
        630.00	     262489.54	     997.18605	     7575.3630
        631.00	     256431.15	     153.31298	     7575.7763
        632.00	     255687.82	     1100.2196	     7576.2919
        633.00	     249725.10	     135.28696	     7576.5970
        634.00	     248738.50	     1086.3105	     7577.1121
        635.00	     244350.15	     1051.7843	     7577.4168
        636.00	     238537.65	     123.89937	     7577.8299
        637.00	     237139.95	     1079.4051	     7578.3424
        638.00	     233457.48	     1057.7968	     7578.6471
        639.00	     226830.16	     179.46158	     7579.0602
        640.00	     225377.35	     964.19959	     7579.5729
        641.00	     221045.97	     1187.6755	     7579.8777
        642.00	     214497.44	     79.441541	     7580.2904
        643.00	     212597.25	     1171.7679	     7580.8034
        644.00	     208406.55	     1072.4758	     7581.1075
        645.00	     204255.25	     1131.9152	     7581.4120
        646.00	     197541.63	     268.38059	     7581.8254
        647.00	     196086.50	     1049.6779	     7582.3442
        648.00	     191291.20	     1055.7994	     7582.6489
        649.00	     184678.65	     210.60583	     7583.0617
        650.00	     182850.38	     1052.0880	     7583.5746
        651.00	     178499.18	     1079.0161	     7583.8790
        652.00	     171646.96	     234.96628	     7584.2922
        653.00	     170212.11	     957.14243	     7584.8047
        654.00	     162859.80	     236.78596	     7585.1097
        655.00	     160854.35	     983.03524	     7585.6250
        656.00	     154513.78	     185.91988	     7585.9299
        657.00	     152643.29	     972.88547	     7586.4454
        658.00	     145954.23	     260.06038	     7586.7501
        659.00	     144863.04	     942.09489	     7587.2684
        660.00	     137989.93	     124.36341	     7587.5735
        661.00	     136009.93	     971.36369	     7588.0888
        662.00	     131611.43	     843.93739	     7588.3933
        663.00	     125869.92	     121.36721	     7588.8065
        664.00	     124564.28	     873.73658	     7589.3189
        665.00	     120643.26	     769.43562	     7589.6235
        666.00	     115301.50	     172.86086	     7590.0370
        667.00	     113737.58	     799.88387	     7590.5496
        668.00	     108275.29	     174.03730	     7590.8543
        669.00	     106782.03	     729.35887	     7591.3695
        670.00	     101683.39	     158.45152	     7591.6746
        671.00	     100202.55	     637.71669	     7592.1899
        672.00	     95117.726	     153.76971	     7592.4948
        673.00	     94121.472	     668.86069	     7593.0100
        674.00	     91537.272	     599.02443	     7593.3146
        675.00	     86762.345	     157.74065	     7593.7276
        676.00	     85660.310	     666.34336	     7594.2402
        677.00	     83260.649	     585.73107	     7594.5449
        678.00	     79149.005	     200.97392	     7594.9580
        679.00	     78179.629	     519.95404	     7595.4706
        680.00	     75723.187	     478.73191	     7595.7750
        681.00	     72210.058	     119.65561	     7596.1884
        682.00	     70223.602	     169.96960	     7596.7043
        683.00	     69629.494	     519.68427	     7597.2199
        684.00	     67322.727	     422.00125	     7597.5243
        685.00	     64687.888	     179.45677	     7597.9375
        686.00	     63743.701	     554.59101	     7598.4503
        687.00	     61785.763	     356.03894	     7598.7547
        688.00	     59415.341	     141.64299	     7599.1678
        689.00	     58539.848	     390.89881	     7599.6807
        690.00	     57314.530	     352.00912	     7599.9850
        691.00	     54894.402	     164.36580	     7600.3982
        692.00	     54430.592	     455.58235	     7600.9108
        693.00	     53144.752	     396.17407	     7601.2151
        694.00	     50923.037	     113.67201	     7601.6285
        695.00	     50528.402	     353.41166	     7602.1410
        696.00	     49331.007	     363.89634	     7602.4458
        697.00	     47074.200	     162.68920	     7602.8588
        698.00	     46749.476	     349.70284	     7603.3714
        699.00	     45967.402	     277.45328	     7603.6759
        700.00	     44130.901	     78.185667	     7604.0891
        701.00	     43445.781	     282.67450	     7604.6016
        702.00	     42095.823	     76.924187	     7604.9067
        703.00	     41620.545	     348.21411	     7605.4253
        704.00	     40770.672	     208.10418	     7605.7296
        705.00	     39020.809	     140.47891	     7606.1427
        706.00	     38683.713	     263.29208	     7606.6553
        707.00	     37838.647	     252.60085	     7606.9601
        708.00	     36749.008	     140.88749	     7607.3736
        709.00	     36470.634	     253.44848	     7607.8857
        710.00	     35302.966	     179.73665	     7608.1900
        711.00	     34054.004	     95.212521	     7608.6034
        712.00	     33924.713	     241.32402	     7609.1161
        713.00	     32735.126	     119.12014	     7609.4209
        714.00	     32440.459	     194.41126	     7609.9362
        715.00	     31765.087	     219.35197	     7610.2407
