Title=200311_em_EtOH_2,0uM_ST520
Comment=
Signature=ISS_Experiment_Ver_1_0
Timestamp=Wed Mar 11 15:50:38 2020
Product=Vinci2
SoftwareVersion=BETA.2.4
BuildNumber=234
RealTimeStart=17668.0384965

AcquisitionType=Photon Counting
AcquisitionFormat=L
AcquisitionSide=Right
Detector Gains=(0.0, 0.0)

Measurable=Intensity
MaxIterations=10

RightEmissionWavelengthBandwidth=8.0
ExcitationWavelengthBandwidth=8.0
Visualization=Y:Intensity,X:EmissionWavelength,PlotType:2D


EmissionWavelength=type:numeric,unit:nm,from:400.0,to:800.0,step:1.0
ExcitationWavelength=type:numeric,unit:nm,fixed:523.0

Space=EmissionWavelength
Columns=EmissionWavelength,Intensity,IntensityStdError,RealTime
[Data]
        400.00	     3.8268484	     1.3959469	     17678.597
        401.00	     1.9763005	     1.1767637	     17680.087
        402.00	     4.2653721	     1.3588336	     17681.287
        403.00	     2.9939109	     1.3526140	     17682.497
        404.00	     2.7612332	    0.80591573	     17683.707
        405.00	     2.3021517	     1.3911556	     17684.917
        406.00	     2.1820441	     1.6267525	     17686.127
        407.00	    0.81725573	    0.92987097	     17687.337
        408.00	     3.6503045	    0.61976651	     17688.547
        409.00	     2.2884828	     1.5015541	     17689.757
        410.00	     2.4018232	     1.0245256	     17690.967
        411.00	     3.9885577	     1.4898988	     17692.177
        412.00	     2.0634548	     1.7256605	     17693.387
        413.00	     2.8580350	     1.3921165	     17694.597
        414.00	    0.47654858	     1.5265013	     17695.807
        415.00	    0.36369070	     1.1238344	     17697.028
        416.00	     3.8911336	     1.6219432	     17698.227
        417.00	     2.7556191	     1.8080058	     17699.437
        418.00	     2.1899062	     1.2971181	     17700.647
        419.00	    0.59387534	     1.2014352	     17701.857
        420.00	     5.1723530	     1.7211446	     17703.067
        421.00	     2.3192558	     2.0182572	     17704.277
        422.00	    0.82834299	     1.2271748	     17705.487
        423.00	     1.8646996	     1.3073405	     17706.697
        424.00	     2.4412710	     1.2823040	     17707.907
        425.00	     3.6082516	     1.2645241	     17709.117
        426.00	     4.0771385	     2.2763101	     17710.327
        427.00	     2.3488611	     1.2861108	     17711.537
        428.00	     3.8676775	     1.0983378	     17712.747
        429.00	   0.023349871	     1.7922705	     17713.957
        430.00	     1.0787591	     1.3674331	     17715.167
        431.00	     2.4951720	     1.4232176	     17716.377
        432.00	     2.2670944	     1.3657159	     17717.587
        433.00	    0.26053504	     1.7337574	     17718.797
        434.00	     4.4184029	    0.75535622	     17720.007
        435.00	     2.5271825	     1.3969753	     17721.217
        436.00	     1.9349659	     1.5629258	     17722.427
        437.00	     2.5413197	     1.5036052	     17723.637
        438.00	     2.0721292	     1.3463262	     17724.847
        439.00	     3.2873919	    0.76862059	     17726.057
        440.00	     1.8447720	     1.3873355	     17727.267
        441.00	     2.2177649	     1.0315795	     17728.477
        442.00	   -0.70982027	    0.69350256	     17729.697
        443.00	    0.27059908	    0.90664405	     17730.897
        444.00	     2.3696049	    0.88616063	     17732.107
        445.00	     2.2519223	     1.9279088	     17733.317
        446.00	     2.5115000	    0.88983816	     17734.527
        447.00	     1.1487370	     1.3187983	     17735.737
        448.00	     3.1661524	     1.4723778	     17736.947
        449.00	     4.1928751	     1.7560109	     17738.157
        450.00	     2.1824204	     1.7356404	     17739.367
        451.00	     2.4419917	     1.7806190	     17740.577
        452.00	     2.5851043	     1.8986621	     17741.787
        453.00	     3.1053360	    0.88593248	     17742.997
        454.00	     3.3818113	     1.5519062	     17744.207
        455.00	     5.3422098	     1.7482121	     17745.427
        456.00	     5.3738465	     1.0251896	     17746.627
        457.00	     5.1368307	     1.2538672	     17747.837
        458.00	    0.55348840	     1.4759952	     17749.047
        459.00	     2.5418925	     1.6057528	     17750.257
        460.00	   -0.23898926	     1.3748277	     17751.467
        461.00	     1.0947180	     2.0222143	     17752.677
        462.00	     2.4476771	     1.9045838	     17753.887
        463.00	     1.6463913	     1.1459728	     17755.097
        464.00	     1.6555134	     1.5465318	     17756.307
        465.00	     3.5812478	     1.9865655	     17757.517
        466.00	     1.5375531	     1.7097537	     17758.727
        467.00	     3.8875525	     2.2721936	     17759.947
        468.00	     1.2767157	     1.5229995	     17761.147
        469.00	     4.3463409	     1.1893231	     17762.357
        470.00	     2.4052916	     1.2714653	     17763.567
        471.00	     3.1303805	     1.5367802	     17764.777
        472.00	     2.5784258	     1.4669849	     17765.987
        473.00	     2.7332758	     2.1766262	     17767.197
        474.00	    -2.1186670	     1.6083068	     17768.407
        475.00	    0.74908391	     1.3027011	     17769.617
        476.00	     1.7663373	     1.4709585	     17770.827
        477.00	     2.3576822	     1.2659675	     17772.037
        478.00	     3.2454700	     1.8421266	     17773.247
        479.00	     4.7335183	     1.7863618	     17774.457
        480.00	     2.6930994	     1.7818248	     17775.667
        481.00	     2.7091086	     1.5885310	     17776.877
        482.00	     2.8765922	     1.3622044	     17778.087
        483.00	     5.4567535	     1.7267500	     17779.297
        484.00	     5.4883209	     2.0472174	     17780.507
        485.00	     5.6736684	     2.5642379	     17781.717
        486.00	    0.79737206	     1.9503704	     17782.927
        487.00	     4.4989350	     1.0322771	     17784.137
        488.00	     4.3777709	     1.1158585	     17785.347
        489.00	     7.8393248	     2.7450748	     17786.557
        490.00	     3.9548229	     2.2169628	     17787.767
        491.00	     7.4551422	     1.8116259	     17788.977
        492.00	     4.7904972	     2.0210521	     17790.187
        493.00	     4.1830543	     1.3046926	     17791.397
        494.00	     3.4024028	     1.9109703	     17792.607
        495.00	     2.4493036	     1.2665291	     17793.817
        496.00	     1.9733178	    0.97794382	     17795.027
        497.00	     1.3407338	     1.7786163	     17796.237
        498.00	     4.3578905	     2.1905603	     17797.447
        499.00	     3.1071353	     2.4967950	     17798.657
        500.00	     12.179313	     2.1982596	     17799.867
        501.00	     7.6430075	     2.2008633	     17801.077
        502.00	     4.1323480	     2.5196080	     17802.287
        503.00	     4.0569397	     1.3319401	     17803.497
        504.00	     10.032239	     2.6092946	     17804.707
        505.00	     11.656229	     1.9860284	     17805.917
        506.00	     10.437045	     2.4461824	     17807.127
        507.00	     11.618031	    0.87435521	     17808.337
        508.00	     6.0922796	     2.3522785	     17809.547
        509.00	     9.2636075	     2.2191272	     17810.757
        510.00	     13.512245	     1.3106415	     17811.967
        511.00	     6.9883174	     3.0260058	     17813.177
        512.00	     16.035112	     2.6067094	     17814.387
        513.00	     14.498610	     2.1683908	     17815.597
        514.00	     17.964436	     2.1978706	     17816.807
        515.00	     16.635222	     3.0773381	     17818.017
        516.00	     18.016708	     3.9826379	     17819.227
        517.00	     25.334429	     3.2004231	     17820.437
        518.00	     30.760273	     3.8014553	     17821.647
        519.00	     60.870480	     3.1513126	     17822.857
        520.00	     133.34176	     4.1539415	     17824.067
        521.00	     226.71376	     5.8548057	     17825.277
        522.00	     378.68901	     4.1282620	     17826.487
        523.00	     482.48290	     8.1036898	     17827.696
        524.00	     523.45485	     4.9214434	     17828.907
        525.00	     480.09250	     5.4634455	     17830.117
        526.00	     372.06084	     4.9712665	     17831.326
        527.00	     249.80616	     4.9343806	     17832.536
        528.00	     155.55062	     5.8765553	     17833.746
        529.00	     100.45236	     3.5653126	     17834.956
        530.00	     80.164974	     5.0856200	     17836.166
        531.00	     77.439534	     4.8153937	     17837.376
        532.00	     94.120615	     4.0787818	     17838.597
        533.00	     98.602796	     3.1906546	     17839.796
        534.00	     116.48795	     4.2918611	     17841.006
        535.00	     126.71526	     4.4551476	     17842.216
        536.00	     143.79052	     4.3038407	     17843.426
        537.00	     154.53064	     5.4341886	     17844.636
        538.00	     180.75236	     4.3702680	     17845.847
        539.00	     216.08491	     4.1141566	     17847.056
        540.00	     223.89475	     3.3687287	     17848.266
        541.00	     263.19968	     5.1431811	     17849.476
        542.00	     302.34030	     8.0578357	     17850.686
        543.00	     331.88988	     5.0009330	     17851.896
        544.00	     364.72434	     7.6556089	     17853.106
        545.00	     421.87670	     6.9423424	     17854.317
        546.00	     455.52695	     5.3564383	     17858.936
        547.00	     515.03348	     9.4928020	     17860.146
        548.00	     588.40030	     6.1946133	     17861.356
        549.00	     662.08291	     5.0359786	     17862.566
        550.00	     707.41727	     6.8852154	     17863.776
        551.00	     803.88900	     5.8195639	     17864.986
        552.00	     878.47428	     10.894136	     17866.196
        553.00	     985.84303	     6.3899672	     17867.406
        554.00	     1082.3341	     10.556512	     17868.616
        555.00	     1217.9662	     12.792065	     17869.826
        556.00	     1333.9548	     13.654708	     17871.036
        557.00	     1478.9800	     14.384088	     17872.247
        558.00	     1611.5714	     11.536917	     17873.456
        559.00	     1781.3525	     14.855176	     17874.666
        560.00	     1957.6509	     17.111307	     17875.876
        561.00	     2105.9130	     12.386948	     17877.096
        562.00	     2341.6574	     22.422859	     17878.296
        563.00	     2527.5296	     20.220672	     17879.506
        564.00	     2779.4477	     14.512870	     17880.717
        565.00	     2966.2805	     14.136655	     17881.926
        566.00	     3232.9731	     21.734260	     17883.136
        567.00	     3518.9325	     15.106159	     17884.346
        568.00	     3766.4492	     21.836830	     17885.556
        569.00	     4068.7061	     17.597959	     17886.806
        570.00	     4406.6003	     15.922708	     17887.976
        571.00	     4703.0817	     25.746164	     17889.186
        572.00	     5045.3607	     16.629531	     17890.396
        573.00	     5396.5973	     17.581729	     17891.606
        574.00	     5757.8373	     39.324557	     17892.816
        575.00	     6134.9006	     21.634238	     17894.026
        576.00	     6546.7611	     33.997617	     17895.236
        577.00	     6940.9411	     20.733229	     17896.446
        578.00	     7360.5913	     23.880505	     17897.656
        579.00	     7797.6912	     36.877085	     17898.866
        580.00	     8214.8298	     31.732659	     17900.076
        581.00	     8636.9552	     33.784954	     17901.286
        582.00	     9139.7558	     28.207553	     17902.496
        583.00	     9510.8647	     13.164130	     17903.706
        584.00	     10002.618	     34.143770	     17904.916
        585.00	     10464.103	     31.461988	     17906.126
        586.00	     10965.183	     32.154101	     17907.336
        587.00	     11444.387	     38.804909	     17908.556
        588.00	     11847.144	     27.688753	     17909.756
        589.00	     12307.821	     32.521923	     17910.966
        590.00	     12848.417	     46.008062	     17912.176
        591.00	     13261.975	     59.610947	     17913.386
        592.00	     13716.668	     37.702221	     17914.596
        593.00	     14158.187	     35.760259	     17915.806
        594.00	     14609.855	     44.819826	     17917.016
        595.00	     15032.949	     39.841676	     17918.226
        596.00	     15475.594	     33.348548	     17919.436
        597.00	     15893.277	     53.526037	     17920.646
        598.00	     16270.715	     52.377967	     17921.856
        599.00	     16578.394	     42.460339	     17923.066
        600.00	     17002.325	     82.366792	     17924.276
        601.00	     17220.870	     40.907251	     17925.496
        602.00	     17700.443	     66.605922	     17926.696
        603.00	     18066.376	     50.091970	     17927.906
        604.00	     18243.462	     50.669452	     17929.116
        605.00	     18575.763	     27.557118	     17930.326
        606.00	     18786.081	     58.422438	     17931.536
        607.00	     19025.406	     81.747117	     17932.746
        608.00	     19331.996	     48.987962	     17933.956
        609.00	     19511.523	     43.018468	     17935.166
        610.00	     19718.657	     49.001439	     17936.376
        611.00	     19785.922	     37.307886	     17937.586
        612.00	     19985.444	     75.979549	     17938.796
        613.00	     20119.185	     45.490831	     17940.006
        614.00	     20094.808	     65.413439	     17941.216
        615.00	     20179.107	     33.920969	     17942.426
        616.00	     20218.368	     32.988260	     17943.636
        617.00	     20191.245	     58.240065	     17944.846
        618.00	     20275.195	     45.166354	     17946.056
        619.00	     20285.724	     43.074096	     17947.266
        620.00	     20301.989	     56.269007	     17948.476
        621.00	     20213.771	     51.234597	     17949.686
        622.00	     20115.181	     32.711358	     17950.896
        623.00	     19961.799	     63.075648	     17952.116
        624.00	     19951.838	     57.447551	     17953.316
        625.00	     19799.035	     62.751642	     17954.526
        626.00	     19704.867	     56.682444	     17955.736
        627.00	     19645.478	     56.370938	     17956.946
        628.00	     19420.705	     43.584549	     17958.156
        629.00	     19171.757	     22.088795	     17959.366
        630.00	     19124.847	     72.818829	     17960.576
        631.00	     18952.222	     63.389188	     17961.786
        632.00	     18633.260	     79.247468	     17962.996
        633.00	     18509.575	     33.810461	     17964.206
        634.00	     18306.343	     51.358534	     17965.416
        635.00	     18070.530	     58.202944	     17966.626
        636.00	     17747.411	     47.667492	     17967.836
        637.00	     17483.808	     23.954932	     17969.046
        638.00	     17376.494	     69.263710	     17970.276
        639.00	     17141.717	     51.573498	     17971.466
        640.00	     16851.405	     33.521982	     17972.676
        641.00	     16645.704	     35.038679	     17973.886
        642.00	     16333.972	     53.936578	     17975.096
        643.00	     16049.209	     43.755525	     17976.306
        644.00	     15799.870	     54.625203	     17977.516
        645.00	     15611.662	     54.938855	     17978.726
        646.00	     15356.351	     71.183918	     17979.936
        647.00	     15015.262	     68.359930	     17981.146
        648.00	     14825.760	     62.598239	     17982.356
        649.00	     14612.800	     68.639524	     17983.566
        650.00	     14301.431	     52.977206	     17984.776
        651.00	     14161.620	     69.566397	     17985.996
        652.00	     13798.764	     36.145699	     17987.206
        653.00	     13599.571	     55.462127	     17988.405
        654.00	     13375.367	     62.166788	     17989.616
        655.00	     13212.838	     60.021816	     17990.825
        656.00	     12908.023	     78.589294	     17992.035
        657.00	     12597.052	     64.399575	     17993.245
        658.00	     12477.487	     67.314618	     17994.465
        659.00	     12218.958	     30.529027	     17995.665
        660.00	     11973.285	     62.424832	     17996.875
        661.00	     11710.569	     73.003305	     17998.086
        662.00	     11563.471	     38.706040	     17999.295
        663.00	     11268.738	     41.072989	     18000.505
        664.00	     11106.250	     68.608535	     18001.715
        665.00	     10827.746	     68.512137	     18002.925
        666.00	     10692.955	     57.066321	     18004.145
        667.00	     10516.521	     39.848392	     18005.346
        668.00	     10338.728	     81.872810	     18006.556
        669.00	     10133.118	     46.739951	     18007.765
        670.00	     9885.0534	     44.201292	     18008.976
        671.00	     9862.3773	     80.653327	     18010.185
        672.00	     9530.1400	     40.355015	     18011.396
        673.00	     9403.5441	     53.262845	     18012.605
        674.00	     9170.1278	     64.308332	     18013.815
        675.00	     8982.9650	     50.314221	     18015.026
        676.00	     8867.3268	     54.945976	     18016.235
        677.00	     8625.6470	     43.567618	     18017.445
        678.00	     8537.8581	     61.435138	     18018.655
        679.00	     8389.4606	     71.986594	     18019.865
        680.00	     8094.8881	     66.601100	     18021.075
        681.00	     8074.9593	     41.533464	     18022.285
        682.00	     7829.2916	     64.798670	     18023.495
        683.00	     7724.6385	     33.236636	     18024.705
        684.00	     7550.5672	     50.960033	     18025.915
        685.00	     7315.6338	     73.001353	     18027.125
        686.00	     7246.2652	     57.643173	     18028.335
        687.00	     7139.1748	     50.109320	     18029.545
        688.00	     6857.7234	     46.113198	     18030.755
        689.00	     6766.6761	     30.573388	     18031.965
        690.00	     6683.6805	     43.553234	     18033.175
        691.00	     6563.2238	     80.149785	     18034.385
        692.00	     6387.1960	     63.672028	     18035.595
        693.00	     6253.9905	     79.089027	     18036.805
        694.00	     6090.4001	     50.116789	     18038.015
        695.00	     6089.5808	     63.032434	     18042.635
        696.00	     5859.5025	     33.149905	     18043.845
        697.00	     5708.2426	     48.911101	     18045.055
        698.00	     5678.5401	     37.208022	     18046.265
        699.00	     5532.5026	     53.222390	     18047.475
        700.00	     5495.9417	     53.260495	     18048.685
        701.00	     5263.0944	     40.887297	     18049.895
        702.00	     5151.8113	     55.590981	     18051.105
        703.00	     5050.3822	     59.018862	     18052.315
        704.00	     4987.5499	     53.012629	     18053.525
        705.00	     4934.8547	     58.486717	     18054.735
        706.00	     4819.7096	     46.059287	     18055.945
        707.00	     4558.2177	     43.600222	     18057.155
        708.00	     4590.2926	     46.430263	     18058.365
        709.00	     4436.1811	     55.605948	     18059.575
        710.00	     4331.6299	     32.540619	     18060.785
        711.00	     4205.0554	     34.089097	     18061.995
        712.00	     4087.0783	     63.482955	     18063.205
        713.00	     4093.0632	     32.094313	     18064.415
        714.00	     4080.1126	     45.630108	     18065.625
        715.00	     3963.3448	     65.396226	     18066.835
